##TITLE=Soddyite
##JCAMP-DX=None
##ORIGIN=RRUFF
##OWNER=Michael Scott
##DATE=05-23-22
##TIME=17:29:57
##SOURCE REFERENCE=Highlights in Mineralogical Crystallography 2015 1-30
##SPECTROMETER/DATA SYSTEM=Unknown
##XUNITS=1/CM
##YUNITS=ARBITRARY UNITS
##XFACTOR=1
##YFACTOR=1
##DELTAX=0.482117
##FIRSTX=107.9252
##LASTX=1285.736
##FIRSTY=831.4121
##MAXX=1285.736
##MINX=107.9252
##MAXY=3246.546
##MINY=61.52692
##NPOINTS=2444
##XYDATA=(XY..XY)
 107.925,   831.412
 108.407,   833.159
 108.889,   839.960
 109.371,   848.920
 109.854,   855.582
 110.336,   860.673
 110.818,   862.474
 111.300,   859.369
 111.782,   851.669
 112.264,   842.226
 112.746,   830.772
 113.228,   818.776
 113.711,   807.404
 114.193,   796.674
 114.675,   787.205
 115.157,   780.088
 115.639,   775.737
 116.121,   772.693
 116.603,   770.874
 117.085,   769.746
 117.567,   768.726
 118.050,   767.447
 118.532,   766.154
 119.014,   766.053
 119.496,   767.972
 119.978,   770.362
 120.460,   773.516
 120.942,   776.928
 121.424,   779.793
 121.907,   781.459
 122.389,   781.840
 122.871,   782.192
 123.353,   782.537
 123.835,   782.845
 124.317,   783.136
 124.799,   783.393
 125.281,   783.587
 125.763,   783.818
 126.246,   784.190
 126.728,   783.374
 127.210,   780.875
 127.692,   777.385
 128.174,   773.279
 128.656,   768.469
 129.138,   763.888
 129.620,   761.104
 130.102,   759.890
 130.585,   758.484
 131.067,   756.145
 131.549,   753.047
 132.031,   749.725
 132.513,   745.914
 132.995,   742.315
 133.477,   739.555
 133.959,   737.641
 134.442,   735.954
 134.924,   734.137
 135.406,   732.261
 135.888,   729.732
 136.370,   725.178
 136.852,   720.758
 137.334,   717.604
 137.816,   716.005
 138.298,   715.772
 138.781,   716.470
 139.263,   717.644
 139.745,   720.934
 140.227,   726.235
 140.709,   733.394
 141.191,   742.441
 141.673,   753.340
 142.155,   765.896
 142.638,   779.303
 143.120,   794.405
 143.602,   809.458
 144.084,   823.996
 144.566,   838.395
 145.048,   853.214
 145.530,   868.725
 146.012,   884.948
 146.494,   902.441
 146.977,   922.159
 147.459,   941.823
 147.941,   960.072
 148.423,   977.240
 148.905,   994.950
 149.387,   1014.721
 149.869,   1036.114
 150.351,   1056.630
 150.834,   1075.209
 151.316,   1093.511
 151.798,   1113.223
 152.280,   1134.650
 152.762,   1156.394
 153.244,   1177.339
 153.726,   1197.908
 154.208,   1219.251
 154.690,   1242.256
 155.173,   1266.044
 155.655,   1288.635
 156.137,   1309.054
 156.619,   1329.886
 157.101,   1352.957
 157.583,   1377.403
 158.065,   1401.910
 158.547,   1426.022
 159.030,   1449.625
 159.512,   1471.175
 159.994,   1490.563
 160.476,   1507.749
 160.958,   1523.310
 161.440,   1536.791
 161.922,   1546.988
 162.404,   1552.449
 162.887,   1552.486
 163.369,   1551.712
 163.851,   1553.129
 164.333,   1551.337
 164.815,   1543.734
 165.297,   1530.257
 165.779,   1512.554
 166.261,   1492.055
 166.743,   1467.421
 167.226,   1443.961
 167.708,   1423.625
 168.190,   1402.909
 168.672,   1379.240
 169.154,   1352.074
 169.636,   1323.149
 170.118,   1294.659
 170.600,   1266.488
 171.083,   1239.318
 171.565,   1212.678
 172.047,   1187.335
 172.529,   1164.164
 173.011,   1143.423
 173.493,   1124.833
 173.975,   1108.259
 174.457,   1093.503
 174.939,   1080.130
 175.422,   1067.974
 175.904,   1057.042
 176.386,   1047.377
 176.868,   1038.747
 177.350,   1031.776
 177.832,   1027.361
 178.314,   1025.606
 178.796,   1024.286
 179.278,   1021.596
 179.761,   1017.833
 180.243,   1015.628
 180.725,   1016.176
 181.207,   1018.289
 181.689,   1021.061
 182.171,   1024.469
 182.653,   1027.921
 183.135,   1030.513
 183.618,   1031.997
 184.100,   1034.614
 184.582,   1040.835
 185.064,   1047.180
 185.546,   1051.471
 186.028,   1053.263
 186.510,   1053.811
 186.992,   1054.935
 187.474,   1057.194
 187.957,   1058.481
 188.439,   1058.835
 188.921,   1058.109
 189.403,   1055.972
 189.885,   1052.355
 190.367,   1047.770
 190.849,   1043.208
 191.331,   1039.730
 191.814,   1034.374
 192.296,   1026.482
 192.778,   1017.172
 193.260,   1007.013
 193.742,   996.313
 194.224,   985.602
 194.706,   976.179
 195.188,   969.651
 195.670,   962.602
 196.153,   954.418
 196.635,   945.876
 197.117,   937.803
 197.599,   930.548
 198.081,   924.053
 198.563,   918.223
 199.045,   913.194
 199.527,   908.569
 200.010,   903.889
 200.492,   899.636
 200.974,   896.734
 201.456,   895.749
 201.938,   896.039
 202.420,   895.678
 202.902,   893.974
 203.384,   892.911
 203.866,   893.292
 204.349,   894.870
 204.831,   896.909
 205.313,   898.954
 205.795,   901.509
 206.277,   905.459
 206.759,   911.043
 207.241,   917.325
 207.723,   923.747
 208.205,   930.396
 208.688,   937.669
 209.170,   945.842
 209.652,   954.722
 210.134,   963.650
 210.616,   972.283
 211.098,   981.771
 211.580,   993.288
 212.062,   1006.810
 212.544,   1020.790
 213.027,   1034.477
 213.509,   1048.442
 213.991,   1063.687
 214.473,   1080.597
 214.955,   1097.016
 215.437,   1109.896
 215.919,   1118.695
 216.401,   1127.670
 216.884,   1140.455
 217.366,   1152.484
 217.848,   1160.981
 218.330,   1165.252
 218.812,   1165.582
 219.294,   1162.440
 219.776,   1156.117
 220.258,   1145.040
 220.740,   1127.128
 221.223,   1105.766
 221.705,   1082.762
 222.187,   1058.658
 222.669,   1033.341
 223.151,   1006.276
 223.633,   975.778
 224.115,   947.120
 224.597,   921.554
 225.079,   897.291
 225.562,   873.053
 226.044,   848.499
 226.526,   824.235
 227.008,   801.169
 227.490,   779.106
 227.972,   759.114
 228.454,   741.425
 228.936,   725.355
 229.419,   710.928
 229.901,   698.029
 230.383,   685.961
 230.865,   673.581
 231.347,   659.575
 231.829,   647.448
 232.311,   638.081
 232.793,   629.909
 233.275,   621.463
 233.758,   612.425
 234.240,   603.582
 234.722,   596.380
 235.204,   591.630
 235.686,   587.303
 236.168,   583.484
 236.650,   580.021
 237.132,   576.666
 237.615,   573.391
 238.097,   570.594
 238.579,   569.019
 239.061,   569.662
 239.543,   569.194
 240.025,   566.708
 240.507,   563.461
 240.989,   560.702
 241.471,   558.720
 241.954,   557.046
 242.436,   555.046
 242.918,   552.630
 243.400,   550.305
 243.882,   548.202
 244.364,   546.184
 244.846,   544.221
 245.328,   542.320
 245.811,   540.148
 246.293,   537.200
 246.775,   533.448
 247.257,   529.688
 247.739,   526.159
 248.221,   522.612
 248.703,   518.662
 249.185,   514.201
 249.667,   509.660
 250.150,   505.264
 250.632,   501.026
 251.114,   497.511
 251.596,   495.163
 252.078,   493.456
 252.560,   491.588
 253.042,   489.406
 253.524,   487.595
 254.006,   487.009
 254.489,   487.322
 254.971,   487.753
 255.453,   488.642
 255.935,   489.330
 256.417,   488.975
 256.899,   487.560
 257.381,   485.079
 257.863,   481.395
 258.346,   476.630
 258.828,   470.615
 259.310,   463.071
 259.792,   454.433
 260.274,   444.957
 260.756,   434.311
 261.238,   424.271
 261.720,   415.815
 262.202,   408.566
 262.685,   402.158
 263.167,   396.406
 263.649,   391.557
 264.131,   388.053
 264.613,   386.072
 265.095,   384.667
 265.577,   383.512
 266.059,   382.707
 266.542,   382.305
 267.024,   382.205
 267.506,   382.835
 267.988,   384.874
 268.470,   388.494
 268.952,   392.744
 269.434,   398.010
 269.916,   403.439
 270.399,   408.260
 270.881,   412.250
 271.363,   416.052
 271.845,   420.453
 272.327,   425.553
 272.809,   430.816
 273.291,   436.250
 273.773,   441.730
 274.255,   447.043
 274.738,   452.212
 275.220,   457.695
 275.702,   464.288
 276.184,   472.205
 276.666,   479.666
 277.148,   485.421
 277.630,   491.371
 278.112,   498.343
 278.594,   506.445
 279.077,   515.314
 279.559,   524.611
 280.041,   534.345
 280.523,   544.644
 281.005,   555.668
 281.487,   567.162
 281.969,   579.144
 282.451,   591.515
 282.933,   604.131
 283.416,   616.759
 283.898,   629.391
 284.380,   642.459
 284.862,   656.365
 285.344,   670.333
 285.826,   684.300
 286.308,   698.114
 286.791,   711.618
 287.273,   724.815
 287.755,   737.601
 288.237,   748.697
 288.719,   757.536
 289.201,   765.118
 289.683,   772.961
 290.165,   779.544
 290.647,   782.538
 291.130,   780.425
 291.612,   774.008
 292.094,   766.340
 292.576,   756.376
 293.058,   746.644
 293.540,   738.317
 294.022,   730.216
 294.504,   720.729
 294.986,   709.065
 295.469,   696.522
 295.951,   686.234
 296.433,   678.860
 296.915,   672.849
 297.397,   667.421
 297.879,   663.335
 298.361,   661.538
 298.843,   662.229
 299.325,   664.453
 299.808,   666.493
 300.290,   667.426
 300.772,   670.422
 301.254,   676.502
 301.736,   683.685
 302.218,   690.819
 302.700,   697.684
 303.182,   704.825
 303.665,   712.928
 304.147,   722.058
 304.629,   731.877
 305.111,   742.746
 305.593,   753.999
 306.075,   765.901
 306.557,   778.036
 307.039,   789.432
 307.522,   799.434
 308.004,   808.192
 308.486,   813.953
 308.968,   817.376
 309.450,   816.936
 309.932,   811.478
 310.414,   801.699
 310.896,   789.144
 311.378,   774.891
 311.861,   756.524
 312.343,   738.709
 312.825,   712.190
 313.307,   684.573
 313.789,   655.344
 314.271,   626.044
 314.753,   598.264
 315.235,   572.963
 315.717,   549.580
 316.200,   526.887
 316.682,   504.650
 317.164,   483.457
 317.646,   462.789
 318.128,   443.331
 318.610,   425.845
 319.092,   410.544
 319.574,   397.054
 320.057,   384.928
 320.539,   374.745
 321.021,   364.683
 321.503,   353.647
 321.985,   343.460
 322.467,   335.541
 322.949,   329.841
 323.431,   325.041
 323.913,   319.546
 324.396,   313.044
 324.878,   307.495
 325.360,   303.796
 325.842,   300.207
 326.324,   295.739
 326.806,   290.741
 327.288,   286.246
 327.770,   283.096
 328.252,   281.226
 328.735,   279.344
 329.217,   277.424
 329.699,   275.514
 330.181,   273.695
 330.663,   271.879
 331.145,   269.827
 331.627,   267.333
 332.109,   264.777
 332.592,   263.452
 333.074,   264.284
 333.556,   264.799
 334.038,   264.441
 334.520,   263.688
 335.002,   262.970
 335.484,   262.429
 335.966,   261.651
 336.449,   261.258
 336.931,   260.253
 337.413,   259.459
 337.895,   258.793
 338.377,   258.434
 338.859,   258.649
 339.341,   259.377
 339.823,   260.183
 340.305,   260.605
 340.788,   260.593
 341.270,   260.693
 341.752,   261.265
 342.234,   261.580
 342.716,   261.203
 343.198,   260.335
 343.680,   259.464
 344.162,   258.870
 344.644,   258.545
 345.127,   258.537
 345.609,   259.317
 346.091,   259.620
 346.573,   258.757
 347.055,   257.354
 347.537,   256.227
 348.019,   255.738
 348.501,   255.526
 348.984,   254.825
 349.466,   253.383
 349.948,   252.319
 350.430,   252.201
 350.912,   252.404
 351.394,   252.655
 351.876,   252.886
 352.358,   252.765
 352.841,   251.619
 353.323,   249.393
 353.805,   248.052
 354.287,   248.588
 354.769,   249.335
 355.251,   249.411
 355.733,   248.813
 356.215,   247.709
 356.697,   245.969
 357.180,   243.769
 357.662,   241.777
 358.144,   240.003
 358.626,   238.460
 359.108,   237.345
 359.590,   236.424
 360.072,   235.313
 360.554,   233.873
 361.036,   232.192
 361.519,   230.284
 362.001,   228.114
 362.483,   226.077
 362.965,   224.515
 363.447,   223.060
 363.929,   221.250
 364.411,   218.970
 364.893,   216.633
 365.375,   214.198
 365.858,   211.839
 366.340,   210.673
 366.822,   211.419
 367.304,   212.761
 367.786,   213.712
 368.268,   214.256
 368.750,   213.571
 369.233,   209.849
 369.715,   205.115
 370.197,   203.192
 370.679,   204.744
 371.161,   206.974
 371.643,   207.938
 372.125,   207.857
 372.607,   207.461
 373.089,   206.780
 373.572,   205.860
 374.054,   204.443
 374.536,   202.680
 375.018,   201.557
 375.500,   201.863
 375.982,   202.832
 376.464,   202.649
 376.946,   201.112
 377.428,   199.118
 377.911,   195.939
 378.393,   192.750
 378.875,   192.155
 379.357,   195.100
 379.839,   198.746
 380.321,   199.273
 380.803,   196.006
 381.285,   193.421
 381.767,   192.333
 382.250,   191.683
 382.732,   190.852
 383.214,   189.714
 383.696,   187.937
 384.178,   184.937
 384.660,   180.951
 385.142,   179.341
 385.624,   182.001
 386.106,   184.438
 386.589,   184.888
 387.071,   184.173
 387.553,   183.784
 388.035,   184.381
 388.517,   185.503
 388.999,   186.145
 389.481,   186.206
 389.964,   185.857
 390.446,   184.656
 390.928,   183.345
 391.410,   182.499
 391.892,   182.208
 392.374,   182.236
 392.856,   182.351
 393.338,   182.548
 393.820,   182.889
 394.303,   183.707
 394.785,   184.314
 395.267,   184.586
 395.749,   184.463
 396.231,   183.782
 396.713,   182.387
 397.195,   180.582
 397.677,   179.422
 398.159,   179.233
 398.642,   179.197
 399.124,   179.277
 399.606,   179.401
 400.088,   179.577
 400.570,   179.783
 401.052,   179.855
 401.534,   179.533
 402.016,   178.731
 402.498,   178.039
 402.981,   177.292
 403.463,   176.863
 403.945,   177.074
 404.427,   177.747
 404.909,   178.444
 405.391,   178.945
 405.873,   179.246
 406.355,   179.314
 406.838,   179.072
 407.320,   178.779
 407.802,   178.553
 408.284,   178.322
 408.766,   177.934
 409.248,   177.293
 409.730,   176.811
 410.212,   177.046
 410.695,   177.944
 411.177,   178.643
 411.659,   178.965
 412.141,   179.023
 412.623,   178.804
 413.105,   178.366
 413.587,   178.167
 414.069,   178.540
 414.551,   179.216
 415.034,   179.832
 415.516,   180.380
 415.998,   180.720
 416.480,   180.710
 416.962,   180.413
 417.444,   180.063
 417.926,   179.435
 418.408,   179.062
 418.890,   179.427
 419.373,   180.286
 419.855,   180.982
 420.337,   181.262
 420.819,   181.407
 421.301,   181.925
 421.783,   182.964
 422.265,   183.722
 422.747,   184.208
 423.229,   184.315
 423.712,   183.588
 424.194,   182.198
 424.676,   181.254
 425.158,   181.706
 425.640,   183.459
 426.122,   184.762
 426.604,   185.178
 427.087,   185.720
 427.569,   186.867
 428.051,   188.223
 428.533,   189.156
 429.015,   189.436
 429.497,   189.457
 429.979,   189.943
 430.461,   191.248
 430.943,   192.251
 431.425,   192.917
 431.908,   193.375
 432.390,   193.514
 432.872,   193.483
 433.354,   193.651
 433.836,   194.301
 434.318,   195.402
 434.800,   196.756
 435.282,   198.440
 435.765,   200.280
 436.247,   202.279
 436.729,   204.363
 437.211,   206.436
 437.693,   208.468
 438.175,   210.514
 438.657,   212.481
 439.139,   214.314
 439.622,   216.977
 440.104,   221.368
 440.586,   225.784
 441.068,   228.974
 441.550,   231.216
 442.032,   233.619
 442.514,   237.041
 442.996,   240.868
 443.478,   243.752
 443.961,   245.497
 444.443,   247.880
 444.925,   252.283
 445.407,   257.633
 445.889,   261.889
 446.371,   264.541
 446.853,   267.341
 447.335,   271.709
 447.817,   276.861
 448.300,   280.861
 448.782,   283.130
 449.264,   285.170
 449.746,   288.661
 450.228,   293.718
 450.710,   298.457
 451.192,   302.218
 451.674,   306.171
 452.156,   311.439
 452.639,   317.566
 453.121,   323.114
 453.603,   327.351
 454.085,   330.562
 454.567,   333.524
 455.049,   335.873
 455.531,   338.478
 456.014,   341.823
 456.496,   345.111
 456.978,   348.088
 457.460,   350.489
 457.942,   351.699
 458.424,   351.012
 458.906,   348.404
 459.388,   345.706
 459.870,   343.835
 460.353,   340.733
 460.835,   335.686
 461.317,   329.261
 461.799,   322.033
 462.281,   314.175
 462.763,   306.036
 463.245,   298.204
 463.727,   290.795
 464.209,   282.979
 464.692,   274.343
 465.174,   265.542
 465.656,   256.527
 466.138,   247.606
 466.620,   239.641
 467.102,   233.583
 467.584,   228.569
 468.066,   222.812
 468.548,   216.146
 469.031,   209.770
 469.513,   204.114
 469.995,   199.165
 470.477,   194.931
 470.959,   191.496
 471.441,   188.466
 471.923,   185.910
 472.405,   183.562
 472.887,   180.839
 473.370,   177.608
 473.852,   174.491
 474.334,   172.036
 474.816,   170.281
 475.298,   168.760
 475.780,   167.758
 476.262,   166.693
 476.745,   165.242
 477.227,   163.544
 477.709,   161.849
 478.191,   160.239
 478.673,   158.751
 479.155,   157.456
 479.637,   156.407
 480.119,   155.432
 480.601,   154.541
 481.084,   153.698
 481.566,   152.893
 482.048,   152.123
 482.530,   151.394
 483.012,   150.725
 483.494,   150.078
 483.976,   149.285
 484.458,   148.087
 484.940,   147.289
 485.423,   147.685
 485.905,   148.078
 486.387,   147.337
 486.869,   145.404
 487.351,   143.414
 487.833,   142.313
 488.315,   141.973
 488.797,   141.791
 489.279,   141.844
 489.762,   141.818
 490.244,   141.619
 490.726,   141.191
 491.208,   140.305
 491.690,   138.583
 492.172,   137.078
 492.654,   136.773
 493.136,   137.304
 493.619,   137.708
 494.101,   137.793
 494.583,   137.440
 495.065,   136.284
 495.547,   134.201
 496.029,   132.977
 496.511,   133.444
 496.993,   134.055
 497.476,   133.919
 497.958,   133.200
 498.440,   132.317
 498.922,   131.455
 499.404,   130.758
 499.886,   130.601
 500.368,   131.566
 500.850,   131.993
 501.332,   131.558
 501.815,   130.927
 502.297,   130.539
 502.779,   130.337
 503.261,   129.946
 503.743,   129.021
 504.225,   127.804
 504.707,   127.333
 505.189,   128.026
 505.671,   128.504
 506.154,   128.047
 506.636,   127.484
 507.118,   127.704
 507.600,   128.746
 508.082,   129.420
 508.564,   128.280
 509.046,   126.105
 509.528,   125.405
 510.010,   126.635
 510.493,   127.952
 510.975,   128.205
 511.457,   127.737
 511.939,   127.412
 512.421,   127.388
 512.903,   127.297
 513.385,   126.765
 513.867,   126.098
 514.350,   125.967
 514.832,   126.517
 515.314,   127.037
 515.796,   126.714
 516.278,   125.450
 516.760,   124.857
 517.242,   125.461
 517.724,   126.027
 518.207,   126.053
 518.689,   125.812
 519.171,   125.785
 519.653,   126.127
 520.135,   126.511
 520.617,   126.366
 521.099,   125.474
 521.581,   124.939
 522.063,   125.237
 522.545,   125.427
 523.028,   125.094
 523.510,   124.419
 523.992,   123.730
 524.474,   123.117
 524.956,   122.705
 525.438,   122.786
 525.920,   123.371
 526.403,   123.777
 526.885,   123.748
 527.367,   123.618
 527.849,   123.747
 528.331,   124.087
 528.813,   124.344
 529.295,   124.466
 529.777,   124.442
 530.259,   124.109
 530.741,   123.570
 531.224,   123.364
 531.706,   123.814
 532.188,   124.458
 532.670,   124.356
 533.152,   122.977
 533.634,   122.055
 534.116,   121.995
 534.598,   122.085
 535.081,   121.590
 535.563,   120.814
 536.045,   120.863
 536.527,   122.535
 537.009,   125.011
 537.491,   125.603
 537.973,   123.028
 538.455,   121.402
 538.938,   122.078
 539.420,   123.081
 539.902,   123.222
 540.384,   122.540
 540.866,   121.746
 541.348,   121.309
 541.830,   121.063
 542.312,   120.506
 542.794,   119.554
 543.277,   119.098
 543.759,   119.878
 544.241,   121.018
 544.723,   121.073
 545.205,   119.863
 545.687,   119.195
 546.169,   120.449
 546.651,   122.080
 547.134,   122.207
 547.616,   120.908
 548.098,   119.550
 548.580,   118.915
 549.062,   118.894
 549.544,   119.128
 550.026,   120.379
 550.508,   120.832
 550.990,   119.563
 551.472,   118.185
 551.955,   118.100
 552.437,   119.144
 552.919,   120.141
 553.401,   120.189
 553.883,   119.538
 554.365,   119.247
 554.847,   119.599
 555.330,   119.598
 555.812,   118.431
 556.294,   117.208
 556.776,   116.814
 557.258,   117.262
 557.740,   117.781
 558.222,   117.969
 558.704,   117.925
 559.186,   117.663
 559.668,   117.183
 560.151,   117.184
 560.633,   118.267
 561.115,   119.785
 561.597,   120.246
 562.079,   119.358
 562.561,   118.579
 563.043,   118.070
 563.525,   117.852
 564.008,   117.929
 564.490,   118.311
 564.972,   119.142
 565.454,   120.587
 565.936,   122.300
 566.418,   123.047
 566.900,   122.108
 567.382,   121.558
 567.865,   121.705
 568.347,   122.098
 568.829,   122.517
 569.311,   122.931
 569.793,   123.370
 570.275,   123.910
 570.757,   124.428
 571.239,   124.413
 571.721,   123.752
 572.204,   123.989
 572.686,   126.160
 573.168,   128.838
 573.650,   130.214
 574.132,   130.324
 574.614,   130.715
 575.096,   132.173
 575.578,   133.785
 576.061,   134.587
